# DIAMOND LIGHT SOURCE
# Instrument: I20-XAS Date: Wed, 8 Oct 2025 17:04:54 BST
# Ring energy: 3.00088 GeV
# Initial ring current: 295.45783 mA
# Filling mode: Standby
# Wiggler gap selected: 19.99900 mm
#  
# Primary slits:  vertical gap= 0.11000 mrad; horizontal gap= 0.69983 mrad; vertical offset= 0.02496 mrad; horizontal offset= -0.02915 mrad
# Secondary slits:  vertical gap= 7.19850 mm; horizontal gap= 24.69800 mm; vertical offset= 1.29930 mm; horizontal offset= 0.00100 mm
# Experimental slits:  vertical gap= 1.50006 mm; horizontal gap= 4.99995 mm; vertical offset= 2.19365 mm; horizontal offset= -2.10002 mm
#  
# Optic Hutch Mirrors Coating: Rhodium
# Monochromator crystal cut: Si(111)
# Monochromator energy : 9658.0010 eV
# Incident angle for Harmonic Rejection Mirrors: -7.86 mrad
# Harmonic rejection mirrors coating: Rhodium
# I0 Stanford sensitivity: 5 uA/V Offsets: 50 nA
# It Stanford sensitivity: 100 nA/V Offsets: 1 nA
# Iref Stanford sensitivity: 50 pA/V Offsets: 50 pA
# I1 Stanford sensitivity: 1 uA/V Offsets: 5 nA
#  
#  
# Atn5 (Xia) filters: Al 0.2 mm In Al 0.5 mm Out Al 1.0 mm Out Al 3.0 mm Out C 0.5 mm Out C 1.0 mm In C 2.0 mm Out C 4.0 mm Out
# XAS Sample stage: x: 1.50 mm y: 31.50 mm z: 0.00 mm rot: 0.00 deg
# XES Sample stage: x: -3.00 mm y: 3.90 mm z: 0.80 mm rot: 45.00 deg
# XES energy (upper, lower): 8632.30 eV , 9571.70 eV
# XES analysers to move (lower) : M3: true, M2: true, M1: true, C: true, P1: true, P2: true, P3: true
# XES analysers to move (upper) : M3: true, M2: true, M1: true, C: true, P1: true, P2: true, P3: true
# XES upper spectrometer : crystal material Si, crystal cut: (6 4 2), Rowland circle radius: 995.0 mm
# XES lower spectrometer : crystal material Ge, crystal cut: (5 5 5), Rowland circle radius: 992.0 mm
# Fluo detector x position : 250.0000 mm
# Ion chamber status : Data seems to be ok (check run at 17:04:25 on 08-10-2025)
# medipix1 ROI : ROI : start = (446, 99), size = (128, 50)
#
# Ascii output file name: 'Experiment_1/ascii/XES_ZnZSM5_air500_279192_1.dat'
# Nexus output file: '/dls/i20/data/2025/sp41335-1/Experiment_1/nexus/279192_1.nxs'
# XML folder and files:
# /dls/i20/data/2025/sp41335-1/xml/Experiment_1/
# RXES_Parameters
# XESDetector_Parameters_upper
# Sample_Parameters
# Output_Parameters
# The contents of these files are also stored in the nexus file.
#
# Sample name: XES_ZnZSM5_air500
# Sample description: ZnZSM5_air500
# command: scan bragg1WithOffset 9658.0 9663.0 0.3 XESEnergyUpper [Range1 : 8632.00, 8647.00, 0.30] XESBraggUpper xes_2d_plotter I1 medipix1 XAS Progress Updater
#
#
#
# Dark current intensity (Hz), collected over 1.00s: I1 512.00
# Dark current has been automatically removed from counts in main scan (I1)
#
# Energy          	XESEnergyUpper  	XESBraggUpper   	I1              	FF_medipix1     	FFI1_medipix1   	Time            	
9658.0010       	8632.0000       	81.7151         	601153.00       	623.000000      	0.001036        	1.0000          	
9658.0000       	8632.3000       	81.7014         	601301.00       	625.000000      	0.001039        	1.0000          	
9657.9980       	8632.5900       	81.6878         	601305.00       	621.000000      	0.001033        	1.0000          	
9658.0000       	8632.8900       	81.6742         	601348.00       	615.000000      	0.001023        	1.0000          	
9658.0000       	8633.1900       	81.6606         	601364.00       	628.000000      	0.001044        	1.0000          	
9657.9990       	8633.4900       	81.6470         	601452.00       	555.000000      	0.000923        	1.0000          	
9658.0000       	8633.7900       	81.6335         	601504.00       	400.000000      	0.000665        	1.0000          	
9658.0000       	8634.0900       	81.6199         	601494.00       	267.000000      	0.000444        	1.0000          	
9658.0000       	8634.3900       	81.6064         	601415.00       	178.000000      	0.000296        	1.0000          	
9658.0000       	8634.6900       	81.5930         	601443.00       	142.000000      	0.000236        	1.0000          	
9658.0000       	8634.9900       	81.5795         	601351.00       	98.000000       	0.000163        	1.0000          	
9658.0000       	8635.2900       	81.5661         	601400.00       	122.000000      	0.000203        	1.0000          	
9657.9990       	8635.5900       	81.5526         	601380.00       	124.000000      	0.000206        	1.0000          	
9658.0000       	8635.8900       	81.5393         	601290.00       	143.000000      	0.000238        	1.0000          	
9658.0010       	8636.1900       	81.5259         	601207.00       	111.000000      	0.000185        	1.0000          	
9658.0000       	8636.4900       	81.5125         	601327.00       	109.000000      	0.000181        	1.0000          	
9658.0000       	8636.7900       	81.4992         	601241.00       	67.000000       	0.000111        	1.0000          	
9657.9990       	8637.0900       	81.4859         	601238.00       	40.000000       	0.000067        	1.0000          	
9658.0010       	8637.3900       	81.4726         	601123.00       	20.000000       	0.000033        	1.0000          	
9658.0000       	8637.6900       	81.4594         	601205.00       	26.000000       	0.000043        	1.0000          	
9658.0010       	8637.9900       	81.4461         	601074.00       	24.000000       	0.000040        	1.0000          	
9657.9980       	8638.2900       	81.4329         	601125.00       	16.000000       	0.000027        	1.0000          	
9658.0010       	8638.5900       	81.4197         	601050.00       	19.000000       	0.000032        	1.0000          	
9658.0000       	8638.8900       	81.4065         	601004.00       	21.000000       	0.000035        	1.0000          	
9658.0010       	8639.1900       	81.3934         	600934.00       	20.000000       	0.000033        	1.0000          	
9657.9980       	8639.4900       	81.3802         	600855.00       	16.000000       	0.000027        	1.0000          	
9657.9980       	8639.7900       	81.3671         	600901.00       	17.000000       	0.000028        	1.0000          	
9658.0000       	8640.0900       	81.3540         	600817.00       	8.000000        	0.000013        	1.0000          	
9658.0010       	8640.3900       	81.3410         	600775.00       	8.000000        	0.000013        	1.0000          	
9658.0010       	8640.6900       	81.3279         	600796.00       	7.000000        	0.000012        	1.0000          	
9658.0000       	8640.9900       	81.3149         	600756.00       	9.000000        	0.000015        	1.0000          	
9658.0000       	8641.2900       	81.3019         	600673.00       	12.000000       	0.000020        	1.0000          	
9658.0000       	8641.5900       	81.2889         	600644.00       	7.000000        	0.000012        	1.0000          	
9657.9990       	8641.8900       	81.2759         	600686.00       	10.000000       	0.000017        	1.0000          	
9658.0000       	8642.1900       	81.2629         	600551.00       	8.000000        	0.000013        	1.0000          	
9658.0010       	8642.4900       	81.2500         	600568.00       	10.000000       	0.000017        	1.0000          	
9658.0000       	8642.7900       	81.2371         	600623.00       	8.000000        	0.000013        	1.0000          	
9658.0000       	8643.0900       	81.2242         	600529.00       	9.000000        	0.000015        	1.0000          	
9657.9990       	8643.3900       	81.2113         	600478.00       	12.000000       	0.000020        	1.0000          	
9658.0010       	8643.6900       	81.1985         	600523.00       	9.000000        	0.000015        	1.0000          	
9657.9990       	8643.9900       	81.1856         	600395.00       	6.000000        	0.000010        	1.0000          	
9657.9990       	8644.2900       	81.1728         	600419.00       	11.000000       	0.000018        	1.0000          	
9657.9990       	8644.5900       	81.1600         	600424.00       	10.000000       	0.000017        	1.0000          	
9658.0000       	8644.8900       	81.1473         	600375.00       	5.000000        	0.000008        	1.0000          	
9657.9990       	8645.1900       	81.1345         	600404.00       	7.000000        	0.000012        	1.0000          	
9657.9990       	8645.4900       	81.1218         	600386.00       	8.000000        	0.000013        	1.0000          	
9658.0000       	8645.7900       	81.1091         	600315.00       	8.000000        	0.000013        	1.0000          	
9658.0000       	8646.0900       	81.0964         	600445.00       	6.000000        	0.000010        	1.0000          	
9657.9990       	8646.3900       	81.0837         	600338.00       	6.000000        	0.000010        	1.0000          	
9658.0000       	8646.6900       	81.0710         	600435.00       	13.000000       	0.000022        	1.0000          	
9658.0000       	8646.9900       	81.0584         	600272.00       	11.000000       	0.000018        	1.0000          	
9658.3010       	8632.0000       	81.7151         	600115.00       	645.000000      	0.001075        	1.0000          	
9658.3010       	8632.3000       	81.7014         	600088.00       	659.000000      	0.001098        	1.0000          	
9658.3000       	8632.5900       	81.6878         	600065.00       	659.000000      	0.001098        	1.0000          	
9658.3010       	8632.8900       	81.6742         	600011.00       	676.000000      	0.001127        	1.0000          	
9658.3000       	8633.1900       	81.6606         	599873.00       	724.000000      	0.001207        	1.0000          	
9658.3010       	8633.4900       	81.6470         	599873.00       	595.000000      	0.000992        	1.0000          	
9658.2990       	8633.7900       	81.6335         	599952.00       	591.000000      	0.000985        	1.0000          	
9658.2990       	8634.0900       	81.6199         	599715.00       	427.000000      	0.000712        	1.0000          	
9658.3000       	8634.3900       	81.6064         	599775.00       	284.000000      	0.000474        	1.0000          	
9658.3010       	8634.6900       	81.5930         	599590.00       	213.000000      	0.000355        	1.0000          	
9658.3010       	8634.9900       	81.5795         	599603.00       	150.000000      	0.000250        	1.0000          	
9658.2990       	8635.2900       	81.5661         	599509.00       	114.000000      	0.000190        	1.0000          	
9658.3000       	8635.5900       	81.5526         	599412.00       	127.000000      	0.000212        	1.0000          	
9658.3000       	8635.8900       	81.5393         	599438.00       	134.000000      	0.000224        	1.0000          	
9658.2990       	8636.1900       	81.5259         	599445.00       	172.000000      	0.000287        	1.0000          	
9658.2990       	8636.4900       	81.5125         	599423.00       	131.000000      	0.000219        	1.0000          	
9658.3010       	8636.7900       	81.4992         	599392.00       	93.000000       	0.000155        	1.0000          	
9658.3000       	8637.0900       	81.4859         	599429.00       	61.000000       	0.000102        	1.0000          	
9658.3010       	8637.3900       	81.4726         	599460.00       	50.000000       	0.000083        	1.0000          	
9658.3000       	8637.6900       	81.4594         	599367.00       	29.000000       	0.000048        	1.0000          	
9658.2990       	8637.9900       	81.4461         	599300.00       	20.000000       	0.000033        	1.0000          	
9658.3000       	8638.2900       	81.4329         	599066.00       	20.000000       	0.000033        	1.0000          	
9658.2990       	8638.5900       	81.4197         	599148.00       	22.000000       	0.000037        	1.0000          	
9658.2990       	8638.8900       	81.4065         	599229.00       	22.000000       	0.000037        	1.0000          	
9658.2990       	8639.1900       	81.3934         	599290.00       	14.000000       	0.000023        	1.0000          	
9658.3010       	8639.4900       	81.3802         	599206.00       	24.000000       	0.000040        	1.0000          	
9658.2980       	8639.7900       	81.3671         	599145.00       	19.000000       	0.000032        	1.0000          	
9658.2990       	8640.0900       	81.3540         	599073.00       	14.000000       	0.000023        	1.0000          	
9658.2990       	8640.3900       	81.3410         	599039.00       	9.000000        	0.000015        	1.0000          	
9658.3000       	8640.6900       	81.3279         	599034.00       	12.000000       	0.000020        	1.0000          	
9658.2990       	8640.9900       	81.3149         	598921.00       	17.000000       	0.000028        	1.0000          	
9658.3000       	8641.2900       	81.3019         	598919.00       	10.000000       	0.000017        	1.0000          	
9658.2990       	8641.5900       	81.2889         	598771.00       	19.000000       	0.000032        	1.0000          	
9658.3010       	8641.8900       	81.2759         	598720.00       	11.000000       	0.000018        	1.0000          	
9658.3000       	8642.1900       	81.2629         	598476.00       	9.000000        	0.000015        	1.0000          	
9658.3000       	8642.4900       	81.2500         	598377.00       	5.000000        	0.000008        	1.0000          	
9658.3010       	8642.7900       	81.2371         	598495.00       	12.000000       	0.000020        	1.0000          	
9658.3000       	8643.0900       	81.2242         	598477.00       	16.000000       	0.000027        	1.0000          	
9658.3010       	8643.3900       	81.2113         	598496.00       	15.000000       	0.000025        	1.0000          	
9658.3000       	8643.6900       	81.1985         	598445.00       	13.000000       	0.000022        	1.0000          	
9658.3010       	8643.9900       	81.1856         	598379.00       	10.000000       	0.000017        	1.0000          	
9658.2990       	8644.2900       	81.1728         	598417.00       	10.000000       	0.000017        	1.0000          	
9658.3010       	8644.5900       	81.1600         	598333.00       	3.000000        	0.000005        	1.0000          	
9658.2990       	8644.8900       	81.1473         	598297.00       	10.000000       	0.000017        	1.0000          	
9658.2990       	8645.1900       	81.1345         	598320.00       	9.000000        	0.000015        	1.0000          	
9658.3010       	8645.4900       	81.1218         	598290.00       	9.000000        	0.000015        	1.0000          	
9658.2990       	8645.7900       	81.1091         	598302.00       	11.000000       	0.000018        	1.0000          	
9658.3000       	8646.0900       	81.0964         	598261.00       	10.000000       	0.000017        	1.0000          	
9658.2990       	8646.3900       	81.0837         	598189.00       	9.000000        	0.000015        	1.0000          	
9658.2990       	8646.6900       	81.0710         	598317.00       	10.000000       	0.000017        	1.0000          	
9658.3000       	8646.9900       	81.0584         	598209.00       	12.000000       	0.000020        	1.0000          	
9658.6010       	8632.0000       	81.7151         	598123.00       	595.000000      	0.000995        	1.0000          	
9658.6010       	8632.3000       	81.7014         	598111.00       	663.000000      	0.001108        	1.0000          	
9658.5980       	8632.5900       	81.6878         	598025.00       	673.000000      	0.001125        	1.0000          	
9658.6010       	8632.8900       	81.6742         	598120.00       	752.000000      	0.001257        	1.0000          	
9658.6010       	8633.1900       	81.6606         	598127.00       	717.000000      	0.001199        	1.0000          	
9658.6010       	8633.4900       	81.6470         	598193.00       	791.000000      	0.001322        	1.0000          	
9658.6000       	8633.7900       	81.6335         	598001.00       	674.000000      	0.001127        	1.0000          	
9658.6000       	8634.0900       	81.6199         	598051.00       	661.000000      	0.001105        	1.0000          	
9658.6010       	8634.3900       	81.6064         	597954.00       	480.000000      	0.000803        	1.0000          	
9658.6000       	8634.6900       	81.5930         	597959.00       	339.000000      	0.000567        	1.0000          	
9658.6010       	8634.9900       	81.5795         	598041.00       	231.000000      	0.000386        	1.0000          	
9658.6000       	8635.2900       	81.5661         	597998.00       	144.000000      	0.000241        	1.0000          	
9658.6000       	8635.5900       	81.5526         	597869.00       	120.000000      	0.000201        	1.0000          	
9658.5980       	8635.8900       	81.5393         	597796.00       	151.000000      	0.000253        	1.0000          	
9658.6010       	8636.1900       	81.5259         	597786.00       	150.000000      	0.000251        	1.0000          	
9658.6000       	8636.4900       	81.5125         	597773.00       	202.000000      	0.000338        	1.0000          	
9658.6000       	8636.7900       	81.4992         	597764.00       	178.000000      	0.000298        	1.0000          	
9658.6000       	8637.0900       	81.4859         	597613.00       	124.000000      	0.000207        	1.0000          	
9658.6000       	8637.3900       	81.4726         	597726.00       	82.000000       	0.000137        	1.0000          	
9658.6000       	8637.6900       	81.4594         	597544.00       	67.000000       	0.000112        	1.0000          	
9658.6010       	8637.9900       	81.4461         	597583.00       	42.000000       	0.000070        	1.0000          	
9658.5990       	8638.2900       	81.4329         	597625.00       	36.000000       	0.000060        	1.0000          	
9658.6010       	8638.5900       	81.4197         	597559.00       	19.000000       	0.000032        	1.0000          	
9658.5990       	8638.8900       	81.4065         	597613.00       	15.000000       	0.000025        	1.0000          	
9658.6020       	8639.1900       	81.3934         	597519.00       	24.000000       	0.000040        	1.0000          	
9658.5990       	8639.4900       	81.3802         	605452.00       	21.000000       	0.000035        	1.0000          	
9658.6010       	8639.7900       	81.3671         	605947.00       	14.000000       	0.000023        	1.0000          	
9658.6020       	8640.0900       	81.3540         	606304.00       	14.000000       	0.000023        	1.0000          	
9658.6000       	8640.3900       	81.3410         	606518.00       	11.000000       	0.000018        	1.0000          	
9658.6010       	8640.6900       	81.3279         	606633.00       	12.000000       	0.000020        	1.0000          	
9658.6010       	8640.9900       	81.3149         	606671.00       	13.000000       	0.000021        	1.0000          	
9658.6010       	8641.2900       	81.3019         	606724.00       	17.000000       	0.000028        	1.0000          	
9658.6000       	8641.5900       	81.2889         	606778.00       	12.000000       	0.000020        	1.0000          	
9658.5990       	8641.8900       	81.2759         	606759.00       	22.000000       	0.000036        	1.0000          	
9658.5990       	8642.1900       	81.2629         	606811.00       	7.000000        	0.000012        	1.0000          	
9658.5970       	8642.4900       	81.2500         	606751.00       	9.000000        	0.000015        	1.0000          	
9658.5990       	8642.7900       	81.2371         	606724.00       	5.000000        	0.000008        	1.0000          	
9658.6010       	8643.0900       	81.2242         	606764.00       	14.000000       	0.000023        	1.0000          	
9658.6020       	8643.3900       	81.2113         	606772.00       	6.000000        	0.000010        	1.0000          	
9658.5980       	8643.6900       	81.1985         	606730.00       	7.000000        	0.000012        	1.0000          	
9658.5990       	8643.9900       	81.1856         	606739.00       	3.000000        	0.000005        	1.0000          	
9658.6000       	8644.2900       	81.1728         	606720.00       	9.000000        	0.000015        	1.0000          	
9658.6010       	8644.5900       	81.1600         	606665.00       	12.000000       	0.000020        	1.0000          	
9658.6010       	8644.8900       	81.1473         	606673.00       	8.000000        	0.000013        	1.0000          	
9658.5990       	8645.1900       	81.1345         	606646.00       	7.000000        	0.000012        	1.0000          	
9658.5990       	8645.4900       	81.1218         	606633.00       	7.000000        	0.000012        	1.0000          	
9658.6000       	8645.7900       	81.1091         	606581.00       	19.000000       	0.000031        	1.0000          	
9658.6010       	8646.0900       	81.0964         	606544.00       	10.000000       	0.000016        	1.0000          	
9658.6000       	8646.3900       	81.0837         	606546.00       	7.000000        	0.000012        	1.0000          	
9658.6010       	8646.6900       	81.0710         	606485.00       	3.000000        	0.000005        	1.0000          	
9658.6010       	8646.9900       	81.0584         	606470.00       	9.000000        	0.000015        	1.0000          	
9658.9010       	8632.0000       	81.7151         	606097.00       	696.000000      	0.001148        	1.0000          	
9658.8990       	8632.3000       	81.7014         	606029.00       	716.000000      	0.001181        	1.0000          	
9658.9010       	8632.5900       	81.6878         	605978.00       	736.000000      	0.001215        	1.0000          	
9658.9010       	8632.8900       	81.6742         	605985.00       	777.000000      	0.001282        	1.0000          	
9658.8990       	8633.1900       	81.6606         	605952.00       	762.000000      	0.001258        	1.0000          	
9658.9010       	8633.4900       	81.6470         	605973.00       	793.000000      	0.001309        	1.0000          	
9658.8990       	8633.7900       	81.6335         	605954.00       	846.000000      	0.001396        	1.0000          	
9658.8990       	8634.0900       	81.6199         	605952.00       	839.000000      	0.001385        	1.0000          	
9658.8980       	8634.3900       	81.6064         	605907.00       	737.000000      	0.001216        	1.0000          	
9658.8990       	8634.6900       	81.5930         	605918.00       	577.000000      	0.000952        	1.0000          	
9658.8990       	8634.9900       	81.5795         	605984.00       	389.000000      	0.000642        	1.0000          	
9658.8990       	8635.2900       	81.5661         	605952.00       	257.000000      	0.000424        	1.0000          	
9658.8980       	8635.5900       	81.5526         	605905.00       	189.000000      	0.000312        	1.0000          	
9658.8990       	8635.8900       	81.5393         	605905.00       	161.000000      	0.000266        	1.0000          	
9658.8990       	8636.1900       	81.5259         	605886.00       	165.000000      	0.000272        	1.0000          	
9658.8980       	8636.4900       	81.5125         	605839.00       	224.000000      	0.000370        	1.0000          	
9658.9000       	8636.7900       	81.4992         	605814.00       	236.000000      	0.000390        	1.0000          	
9658.9010       	8637.0900       	81.4859         	605696.00       	198.000000      	0.000327        	1.0000          	
9658.9010       	8637.3900       	81.4726         	605829.00       	171.000000      	0.000282        	1.0000          	
9658.9000       	8637.6900       	81.4594         	605706.00       	110.000000      	0.000182        	1.0000          	
9658.9000       	8637.9900       	81.4461         	605720.00       	61.000000       	0.000101        	1.0000          	
9658.9000       	8638.2900       	81.4329         	605727.00       	48.000000       	0.000079        	1.0000          	
9658.9010       	8638.5900       	81.4197         	605712.00       	32.000000       	0.000053        	1.0000          	
9658.9030       	8638.8900       	81.4065         	605685.00       	20.000000       	0.000033        	1.0000          	
9658.9000       	8639.1900       	81.3934         	605695.00       	24.000000       	0.000040        	1.0000          	
9658.9000       	8639.4900       	81.3802         	605762.00       	28.000000       	0.000046        	1.0000          	
9658.9000       	8639.7900       	81.3671         	605719.00       	22.000000       	0.000036        	1.0000          	
9658.9000       	8640.0900       	81.3540         	605641.00       	23.000000       	0.000038        	1.0000          	
9658.9010       	8640.3900       	81.3410         	605582.00       	16.000000       	0.000026        	1.0000          	
9658.8990       	8640.6900       	81.3279         	605538.00       	15.000000       	0.000025        	1.0000          	
9658.9000       	8640.9900       	81.3149         	605509.00       	15.000000       	0.000025        	1.0000          	
9658.9010       	8641.2900       	81.3019         	605448.00       	17.000000       	0.000028        	1.0000          	
9658.9000       	8641.5900       	81.2889         	605476.00       	14.000000       	0.000023        	1.0000          	
9658.8990       	8641.8900       	81.2759         	605415.00       	17.000000       	0.000028        	1.0000          	
9658.9010       	8642.1900       	81.2629         	605416.00       	14.000000       	0.000023        	1.0000          	
9658.9010       	8642.4900       	81.2500         	605393.00       	7.000000        	0.000012        	1.0000          	
9658.9010       	8642.7900       	81.2371         	605365.00       	10.000000       	0.000017        	1.0000          	
9658.9010       	8643.0900       	81.2242         	605341.00       	10.000000       	0.000017        	1.0000          	
9658.9000       	8643.3900       	81.2113         	605362.00       	18.000000       	0.000030        	1.0000          	
9658.8990       	8643.6900       	81.1985         	605355.00       	12.000000       	0.000020        	1.0000          	
9658.9000       	8643.9900       	81.1856         	605319.00       	19.000000       	0.000031        	1.0000          	
9658.9000       	8644.2900       	81.1728         	605253.00       	9.000000        	0.000015        	1.0000          	
9658.9020       	8644.5900       	81.1600         	605237.00       	10.000000       	0.000017        	1.0000          	
9658.9000       	8644.8900       	81.1473         	605133.00       	8.000000        	0.000013        	1.0000          	
9658.9020       	8645.1900       	81.1345         	605108.00       	6.000000        	0.000010        	1.0000          	
9658.9010       	8645.4900       	81.1218         	605133.00       	7.000000        	0.000012        	1.0000          	
9658.9010       	8645.7900       	81.1091         	605117.00       	9.000000        	0.000015        	1.0000          	
9658.9010       	8646.0900       	81.0964         	605063.00       	15.000000       	0.000025        	1.0000          	
9658.9010       	8646.3900       	81.0837         	605026.00       	6.000000        	0.000010        	1.0000          	
9658.8990       	8646.6900       	81.0710         	604997.00       	12.000000       	0.000020        	1.0000          	
9658.8990       	8646.9900       	81.0584         	604971.00       	5.000000        	0.000008        	1.0000          	
9659.1990       	8632.0000       	81.7151         	604187.00       	676.000000      	0.001119        	1.0000          	
9659.1990       	8632.3000       	81.7014         	604096.00       	727.000000      	0.001203        	1.0000          	
9659.1990       	8632.5900       	81.6878         	604033.00       	821.000000      	0.001359        	1.0000          	
9659.2010       	8632.8900       	81.6742         	604022.00       	820.000000      	0.001358        	1.0000          	
9659.2000       	8633.1900       	81.6606         	604032.00       	862.000000      	0.001427        	1.0000          	
9659.1990       	8633.4900       	81.6470         	603991.00       	887.000000      	0.001469        	1.0000          	
9659.2000       	8633.7900       	81.6335         	603898.00       	952.000000      	0.001576        	1.0000          	
9659.1990       	8634.0900       	81.6199         	603832.00       	914.000000      	0.001514        	1.0000          	
9659.2000       	8634.3900       	81.6064         	603752.00       	929.000000      	0.001539        	1.0000          	
9659.2000       	8634.6900       	81.5930         	603755.00       	801.000000      	0.001327        	1.0000          	
9659.2000       	8634.9900       	81.5795         	603644.00       	608.000000      	0.001007        	1.0000          	
9659.1990       	8635.2900       	81.5661         	603698.00       	408.000000      	0.000676        	1.0000          	
9659.2000       	8635.5900       	81.5526         	603519.00       	270.000000      	0.000447        	1.0000          	
9659.1980       	8635.8900       	81.5393         	603510.00       	219.000000      	0.000363        	1.0000          	
9659.2000       	8636.1900       	81.5259         	603645.00       	180.000000      	0.000298        	1.0000          	
9659.1980       	8636.4900       	81.5125         	603604.00       	225.000000      	0.000373        	1.0000          	
9659.2020       	8636.7900       	81.4992         	603587.00       	268.000000      	0.000444        	1.0000          	
9659.1990       	8637.0900       	81.4859         	603641.00       	293.000000      	0.000485        	1.0000          	
9659.2000       	8637.3900       	81.4726         	603557.00       	266.000000      	0.000441        	1.0000          	
9659.2000       	8637.6900       	81.4594         	603546.00       	218.000000      	0.000361        	1.0000          	
9659.2010       	8637.9900       	81.4461         	603368.00       	163.000000      	0.000270        	1.0000          	
9659.2000       	8638.2900       	81.4329         	603360.00       	94.000000       	0.000156        	1.0000          	
9659.2000       	8638.5900       	81.4197         	603393.00       	64.000000       	0.000106        	1.0000          	
9659.2000       	8638.8900       	81.4065         	603191.00       	29.000000       	0.000048        	1.0000          	
9659.1980       	8639.1900       	81.3934         	603205.00       	34.000000       	0.000056        	1.0000          	
9659.2020       	8639.4900       	81.3802         	603200.00       	32.000000       	0.000053        	1.0000          	
9659.2010       	8639.7900       	81.3671         	603150.00       	27.000000       	0.000045        	1.0000          	
9659.2010       	8640.0900       	81.3540         	603125.00       	31.000000       	0.000051        	1.0000          	
9659.1980       	8640.3900       	81.3410         	603072.00       	14.000000       	0.000023        	1.0000          	
9659.2000       	8640.6900       	81.3279         	603006.00       	25.000000       	0.000041        	1.0000          	
9659.1990       	8640.9900       	81.3149         	603005.00       	16.000000       	0.000027        	1.0000          	
9659.2010       	8641.2900       	81.3019         	602871.00       	17.000000       	0.000028        	1.0000          	
9659.2000       	8641.5900       	81.2889         	602901.00       	15.000000       	0.000025        	1.0000          	
9659.1990       	8641.8900       	81.2759         	602815.00       	13.000000       	0.000022        	1.0000          	
9659.2010       	8642.1900       	81.2629         	602827.00       	9.000000        	0.000015        	1.0000          	
9659.2000       	8642.4900       	81.2500         	602750.00       	9.000000        	0.000015        	1.0000          	
9659.2020       	8642.7900       	81.2371         	602783.00       	11.000000       	0.000018        	1.0000          	
9659.2020       	8643.0900       	81.2242         	602725.00       	12.000000       	0.000020        	1.0000          	
9659.2010       	8643.3900       	81.2113         	602776.00       	12.000000       	0.000020        	1.0000          	
9659.2010       	8643.6900       	81.1985         	602720.00       	18.000000       	0.000030        	1.0000          	
9659.1990       	8643.9900       	81.1856         	602657.00       	17.000000       	0.000028        	1.0000          	
9659.2010       	8644.2900       	81.1728         	602787.00       	11.000000       	0.000018        	1.0000          	
9659.2000       	8644.5900       	81.1600         	602563.00       	12.000000       	0.000020        	1.0000          	
9659.2000       	8644.8900       	81.1473         	602415.00       	8.000000        	0.000013        	1.0000          	
9659.2010       	8645.1900       	81.1345         	602512.00       	15.000000       	0.000025        	1.0000          	
9659.1990       	8645.4900       	81.1218         	602421.00       	15.000000       	0.000025        	1.0000          	
9659.2000       	8645.7900       	81.1091         	602553.00       	13.000000       	0.000022        	1.0000          	
9659.1980       	8646.0900       	81.0964         	602535.00       	15.000000       	0.000025        	1.0000          	
9659.2000       	8646.3900       	81.0837         	602313.00       	16.000000       	0.000027        	1.0000          	
9659.2010       	8646.6900       	81.0710         	602499.00       	8.000000        	0.000013        	1.0000          	
9659.2000       	8646.9900       	81.0584         	602432.00       	9.000000        	0.000015        	1.0000          	
9659.5000       	8632.0000       	81.7151         	602135.00       	653.000000      	0.001084        	1.0000          	
9659.5010       	8632.3000       	81.7014         	602051.00       	686.000000      	0.001139        	1.0000          	
9659.5000       	8632.5900       	81.6878         	601999.00       	739.000000      	0.001228        	1.0000          	
9659.5000       	8632.8900       	81.6742         	601825.00       	855.000000      	0.001421        	1.0000          	
9659.4990       	8633.1900       	81.6606         	601901.00       	888.000000      	0.001475        	1.0000          	
9659.5010       	8633.4900       	81.6470         	601757.00       	976.000000      	0.001622        	1.0000          	
9659.4990       	8633.7900       	81.6335         	601763.00       	1003.000000     	0.001667        	1.0000          	
9659.5010       	8634.0900       	81.6199         	601823.00       	1023.000000     	0.001700        	1.0000          	
9659.5010       	8634.3900       	81.6064         	601720.00       	1060.000000     	0.001762        	1.0000          	
9659.4990       	8634.6900       	81.5930         	601721.00       	1056.000000     	0.001755        	1.0000          	
9659.5000       	8634.9900       	81.5795         	601589.00       	947.000000      	0.001574        	1.0000          	
9659.5010       	8635.2900       	81.5661         	601471.00       	745.000000      	0.001239        	1.0000          	
9659.4970       	8635.5900       	81.5526         	601411.00       	492.000000      	0.000818        	1.0000          	
9659.5010       	8635.8900       	81.5393         	601372.00       	356.000000      	0.000592        	1.0000          	
9659.5010       	8636.1900       	81.5259         	601319.00       	256.000000      	0.000426        	1.0000          	
9659.5000       	8636.4900       	81.5125         	601394.00       	216.000000      	0.000359        	1.0000          	
9659.4990       	8636.7900       	81.4992         	601315.00       	273.000000      	0.000454        	1.0000          	
9659.5010       	8637.0900       	81.4859         	601388.00       	312.000000      	0.000519        	1.0000          	
9659.4990       	8637.3900       	81.4726         	601239.00       	389.000000      	0.000647        	1.0000          	
9659.5000       	8637.6900       	81.4594         	601228.00       	333.000000      	0.000554        	1.0000          	
9659.5010       	8637.9900       	81.4461         	601212.00       	271.000000      	0.000451        	1.0000          	
9659.4990       	8638.2900       	81.4329         	601139.00       	173.000000      	0.000288        	1.0000          	
9659.5020       	8638.5900       	81.4197         	601260.00       	113.000000      	0.000188        	1.0000          	
9659.4980       	8638.8900       	81.4065         	601069.00       	72.000000       	0.000120        	1.0000          	
9659.5010       	8639.1900       	81.3934         	601027.00       	38.000000       	0.000063        	1.0000          	
9659.4990       	8639.4900       	81.3802         	600919.00       	35.000000       	0.000058        	1.0000          	
9659.4990       	8639.7900       	81.3671         	600822.00       	33.000000       	0.000055        	1.0000          	
9659.4990       	8640.0900       	81.3540         	600875.00       	27.000000       	0.000045        	1.0000          	
9659.4990       	8640.3900       	81.3410         	600872.00       	26.000000       	0.000043        	1.0000          	
9659.5000       	8640.6900       	81.3279         	600787.00       	16.000000       	0.000027        	1.0000          	
9659.5000       	8640.9900       	81.3149         	600769.00       	20.000000       	0.000033        	1.0000          	
9659.5000       	8641.2900       	81.3019         	600669.00       	14.000000       	0.000023        	1.0000          	
9659.4990       	8641.5900       	81.2889         	600702.00       	22.000000       	0.000037        	1.0000          	
9659.5000       	8641.8900       	81.2759         	600599.00       	13.000000       	0.000022        	1.0000          	
9659.5000       	8642.1900       	81.2629         	600543.00       	18.000000       	0.000030        	1.0000          	
9659.5000       	8642.4900       	81.2500         	600448.00       	17.000000       	0.000028        	1.0000          	
9659.5020       	8642.7900       	81.2371         	600591.00       	17.000000       	0.000028        	1.0000          	
9659.4990       	8643.0900       	81.2242         	600404.00       	19.000000       	0.000032        	1.0000          	
9659.5000       	8643.3900       	81.2113         	600396.00       	16.000000       	0.000027        	1.0000          	
9659.5000       	8643.6900       	81.1985         	600249.00       	19.000000       	0.000032        	1.0000          	
9659.4990       	8643.9900       	81.1856         	600190.00       	10.000000       	0.000017        	1.0000          	
9659.4990       	8644.2900       	81.1728         	600085.00       	13.000000       	0.000022        	1.0000          	
9659.5020       	8644.5900       	81.1600         	600133.00       	9.000000        	0.000015        	1.0000          	
9659.4990       	8644.8900       	81.1473         	599978.00       	19.000000       	0.000032        	1.0000          	
9659.5000       	8645.1900       	81.1345         	599963.00       	4.000000        	0.000007        	1.0000          	
9659.4990       	8645.4900       	81.1218         	600091.00       	10.000000       	0.000017        	1.0000          	
9659.4990       	8645.7900       	81.1091         	599958.00       	12.000000       	0.000020        	1.0000          	
9659.5000       	8646.0900       	81.0964         	599940.00       	9.000000        	0.000015        	1.0000          	
9659.5010       	8646.3900       	81.0837         	599881.00       	2.000000        	0.000003        	1.0000          	
9659.4990       	8646.6900       	81.0710         	599906.00       	20.000000       	0.000033        	1.0000          	
9659.5000       	8646.9900       	81.0584         	599829.00       	9.000000        	0.000015        	1.0000          	
9659.8010       	8632.0000       	81.7151         	600104.00       	612.000000      	0.001020        	1.0000          	
9659.8000       	8632.3000       	81.7014         	600229.00       	665.000000      	0.001108        	1.0000          	
9659.8000       	8632.5900       	81.6878         	600144.00       	758.000000      	0.001263        	1.0000          	
9659.8000       	8632.8900       	81.6742         	600095.00       	837.000000      	0.001395        	1.0000          	
9659.8010       	8633.1900       	81.6606         	600071.00       	956.000000      	0.001593        	1.0000          	
9659.7990       	8633.4900       	81.6470         	600127.00       	992.000000      	0.001653        	1.0000          	
9659.8010       	8633.7900       	81.6335         	600007.00       	1160.000000     	0.001933        	1.0000          	
9659.7990       	8634.0900       	81.6199         	600058.00       	1170.000000     	0.001950        	1.0000          	
9659.8010       	8634.3900       	81.6064         	599913.00       	1146.000000     	0.001910        	1.0000          	
9659.8000       	8634.6900       	81.5930         	599934.00       	1189.000000     	0.001982        	1.0000          	
9659.8010       	8634.9900       	81.5795         	599847.00       	1157.000000     	0.001929        	1.0000          	
9659.8020       	8635.2900       	81.5661         	599745.00       	1083.000000     	0.001806        	1.0000          	
9659.8010       	8635.5900       	81.5526         	599637.00       	911.000000      	0.001519        	1.0000          	
9659.7990       	8635.8900       	81.5393         	599548.00       	559.000000      	0.000932        	1.0000          	
9659.8020       	8636.1900       	81.5259         	599633.00       	399.000000      	0.000665        	1.0000          	
9659.8000       	8636.4900       	81.5125         	599690.00       	313.000000      	0.000522        	1.0000          	
9659.8000       	8636.7900       	81.4992         	599553.00       	288.000000      	0.000480        	1.0000          	
9659.7990       	8637.0900       	81.4859         	599531.00       	311.000000      	0.000519        	1.0000          	
9659.7990       	8637.3900       	81.4726         	599494.00       	434.000000      	0.000724        	1.0000          	
9659.8000       	8637.6900       	81.4594         	599505.00       	462.000000      	0.000771        	1.0000          	
9659.8000       	8637.9900       	81.4461         	599435.00       	473.000000      	0.000789        	1.0000          	
9659.8010       	8638.2900       	81.4329         	599371.00       	388.000000      	0.000647        	1.0000          	
9659.8010       	8638.5900       	81.4197         	599300.00       	212.000000      	0.000354        	1.0000          	
9659.8010       	8638.8900       	81.4065         	599223.00       	134.000000      	0.000224        	1.0000          	
9659.8010       	8639.1900       	81.3934         	599237.00       	94.000000       	0.000157        	1.0000          	
9659.7990       	8639.4900       	81.3802         	599254.00       	55.000000       	0.000092        	1.0000          	
9659.8000       	8639.7900       	81.3671         	599126.00       	45.000000       	0.000075        	1.0000          	
9659.8010       	8640.0900       	81.3540         	599111.00       	30.000000       	0.000050        	1.0000          	
9659.7980       	8640.3900       	81.3410         	599132.00       	34.000000       	0.000057        	1.0000          	
9659.8000       	8640.6900       	81.3279         	599150.00       	35.000000       	0.000058        	1.0000          	
9659.8000       	8640.9900       	81.3149         	599050.00       	17.000000       	0.000028        	1.0000          	
9659.7990       	8641.2900       	81.3019         	598812.00       	23.000000       	0.000038        	1.0000          	
9659.8000       	8641.5900       	81.2889         	598867.00       	17.000000       	0.000028        	1.0000          	
9659.8010       	8641.8900       	81.2759         	598750.00       	33.000000       	0.000055        	1.0000          	
9659.8010       	8642.1900       	81.2629         	598754.00       	17.000000       	0.000028        	1.0000          	
9659.8020       	8642.4900       	81.2500         	598637.00       	17.000000       	0.000028        	1.0000          	
9659.7990       	8642.7900       	81.2371         	598656.00       	15.000000       	0.000025        	1.0000          	
9659.8010       	8643.0900       	81.2242         	598766.00       	19.000000       	0.000032        	1.0000          	
9659.7990       	8643.3900       	81.2113         	598600.00       	16.000000       	0.000027        	1.0000          	
9659.7990       	8643.6900       	81.1985         	598463.00       	10.000000       	0.000017        	1.0000          	
9659.8000       	8643.9900       	81.1856         	598467.00       	14.000000       	0.000023        	1.0000          	
9659.7990       	8644.2900       	81.1728         	598343.00       	21.000000       	0.000035        	1.0000          	
9659.8000       	8644.5900       	81.1600         	598259.00       	10.000000       	0.000017        	1.0000          	
9659.8010       	8644.8900       	81.1473         	598310.00       	14.000000       	0.000023        	1.0000          	
9659.8010       	8645.1900       	81.1345         	598281.00       	11.000000       	0.000018        	1.0000          	
9659.8000       	8645.4900       	81.1218         	598244.00       	9.000000        	0.000015        	1.0000          	
9659.8010       	8645.7900       	81.1091         	598193.00       	15.000000       	0.000025        	1.0000          	
9659.8020       	8646.0900       	81.0964         	598193.00       	17.000000       	0.000028        	1.0000          	
9659.8000       	8646.3900       	81.0837         	598110.00       	9.000000        	0.000015        	1.0000          	
9659.7990       	8646.6900       	81.0710         	598054.00       	13.000000       	0.000022        	1.0000          	
9659.7990       	8646.9900       	81.0584         	598156.00       	12.000000       	0.000020        	1.0000          	
9660.1010       	8632.0000       	81.7151         	604728.00       	601.000000      	0.000994        	1.0000          	
9660.1000       	8632.3000       	81.7014         	606929.00       	711.000000      	0.001171        	1.0000          	
9660.1010       	8632.5900       	81.6878         	607303.00       	807.000000      	0.001329        	1.0000          	
9660.0980       	8632.8900       	81.6742         	607471.00       	876.000000      	0.001442        	1.0000          	
9660.1010       	8633.1900       	81.6606         	607630.00       	945.000000      	0.001555        	1.0000          	
9660.1010       	8633.4900       	81.6470         	607646.00       	1025.000000     	0.001687        	1.0000          	
9660.0980       	8633.7900       	81.6335         	607683.00       	1163.000000     	0.001914        	1.0000          	
9660.1000       	8634.0900       	81.6199         	607658.00       	1203.000000     	0.001980        	1.0000          	
9660.1000       	8634.3900       	81.6064         	607662.00       	1310.000000     	0.002156        	1.0000          	
9660.0990       	8634.6900       	81.5930         	607669.00       	1330.000000     	0.002189        	1.0000          	
9660.1030       	8634.9900       	81.5795         	607632.00       	1468.000000     	0.002416        	1.0000          	
9660.0990       	8635.2900       	81.5661         	607666.00       	1325.000000     	0.002180        	1.0000          	
9660.1000       	8635.5900       	81.5526         	607607.00       	1167.000000     	0.001921        	1.0000          	
9660.1000       	8635.8900       	81.5393         	607585.00       	1006.000000     	0.001656        	1.0000          	
9660.1000       	8636.1900       	81.5259         	607563.00       	674.000000      	0.001109        	1.0000          	
9660.1000       	8636.4900       	81.5125         	607504.00       	483.000000      	0.000795        	1.0000          	
9660.1000       	8636.7900       	81.4992         	607443.00       	345.000000      	0.000568        	1.0000          	
9660.1000       	8637.0900       	81.4859         	607482.00       	379.000000      	0.000624        	1.0000          	
9660.1010       	8637.3900       	81.4726         	607436.00       	431.000000      	0.000710        	1.0000          	
9660.1000       	8637.6900       	81.4594         	607410.00       	594.000000      	0.000978        	1.0000          	
9660.0990       	8637.9900       	81.4461         	607349.00       	643.000000      	0.001059        	1.0000          	
9660.1000       	8638.2900       	81.4329         	607371.00       	659.000000      	0.001085        	1.0000          	
9660.0990       	8638.5900       	81.4197         	607327.00       	489.000000      	0.000805        	1.0000          	
9660.1010       	8638.8900       	81.4065         	607308.00       	352.000000      	0.000580        	1.0000          	
9660.0990       	8639.1900       	81.3934         	607273.00       	195.000000      	0.000321        	1.0000          	
9660.1010       	8639.4900       	81.3802         	607210.00       	109.000000      	0.000180        	1.0000          	
9660.1030       	8639.7900       	81.3671         	607186.00       	91.000000       	0.000150        	1.0000          	
9660.1010       	8640.0900       	81.3540         	607175.00       	84.000000       	0.000138        	1.0000          	
9660.1010       	8640.3900       	81.3410         	607111.00       	49.000000       	0.000081        	1.0000          	
9660.1000       	8640.6900       	81.3279         	607113.00       	49.000000       	0.000081        	1.0000          	
9660.0990       	8640.9900       	81.3149         	607018.00       	36.000000       	0.000059        	1.0000          	
9660.0990       	8641.2900       	81.3019         	606991.00       	37.000000       	0.000061        	1.0000          	
9660.0980       	8641.5900       	81.2889         	607011.00       	34.000000       	0.000056        	1.0000          	
9660.0990       	8641.8900       	81.2759         	606971.00       	25.000000       	0.000041        	1.0000          	
9660.1010       	8642.1900       	81.2629         	606957.00       	18.000000       	0.000030        	1.0000          	
9660.1000       	8642.4900       	81.2500         	606962.00       	16.000000       	0.000026        	1.0000          	
9660.1000       	8642.7900       	81.2371         	606966.00       	25.000000       	0.000041        	1.0000          	
9660.1010       	8643.0900       	81.2242         	606924.00       	17.000000       	0.000028        	1.0000          	
9660.1000       	8643.3900       	81.2113         	606885.00       	20.000000       	0.000033        	1.0000          	
9660.1010       	8643.6900       	81.1985         	606827.00       	18.000000       	0.000030        	1.0000          	
9660.0990       	8643.9900       	81.1856         	606802.00       	19.000000       	0.000031        	1.0000          	
9660.0990       	8644.2900       	81.1728         	606781.00       	15.000000       	0.000025        	1.0000          	
9660.1000       	8644.5900       	81.1600         	606712.00       	16.000000       	0.000026        	1.0000          	
9660.1000       	8644.8900       	81.1473         	606668.00       	13.000000       	0.000021        	1.0000          	
9660.1010       	8645.1900       	81.1345         	606633.00       	20.000000       	0.000033        	1.0000          	
9660.1000       	8645.4900       	81.1218         	606606.00       	17.000000       	0.000028        	1.0000          	
9660.1000       	8645.7900       	81.1091         	606531.00       	12.000000       	0.000020        	1.0000          	
9660.1000       	8646.0900       	81.0964         	606532.00       	16.000000       	0.000026        	1.0000          	
9660.0990       	8646.3900       	81.0837         	606505.00       	14.000000       	0.000023        	1.0000          	
9660.1010       	8646.6900       	81.0710         	606508.00       	14.000000       	0.000023        	1.0000          	
9660.1000       	8646.9900       	81.0584         	606475.00       	10.000000       	0.000016        	1.0000          	
9660.4030       	8632.0000       	81.7151         	606354.00       	758.000000      	0.001250        	1.0000          	
9660.4010       	8632.3000       	81.7014         	606198.00       	696.000000      	0.001148        	1.0000          	
9660.4010       	8632.5900       	81.6878         	606129.00       	798.000000      	0.001317        	1.0000          	
9660.4000       	8632.8900       	81.6742         	606139.00       	844.000000      	0.001392        	1.0000          	
9660.4010       	8633.1900       	81.6606         	606026.00       	950.000000      	0.001568        	1.0000          	
9660.3980       	8633.4900       	81.6470         	606030.00       	1104.000000     	0.001822        	1.0000          	
9660.4000       	8633.7900       	81.6335         	606096.00       	1156.000000     	0.001907        	1.0000          	
9660.4010       	8634.0900       	81.6199         	606003.00       	1332.000000     	0.002198        	1.0000          	
9660.4010       	8634.3900       	81.6064         	605882.00       	1309.000000     	0.002160        	1.0000          	
9660.4020       	8634.6900       	81.5930         	605845.00       	1527.000000     	0.002520        	1.0000          	
9660.4000       	8634.9900       	81.5795         	605879.00       	1549.000000     	0.002557        	1.0000          	
9660.4010       	8635.2900       	81.5661         	605735.00       	1583.000000     	0.002613        	1.0000          	
9660.3990       	8635.5900       	81.5526         	605851.00       	1599.000000     	0.002639        	1.0000          	
9660.4000       	8635.8900       	81.5393         	605708.00       	1442.000000     	0.002381        	1.0000          	
9660.4020       	8636.1900       	81.5259         	605841.00       	1122.000000     	0.001852        	1.0000          	
9660.3990       	8636.4900       	81.5125         	605788.00       	895.000000      	0.001477        	1.0000          	
9660.4000       	8636.7900       	81.4992         	605702.00       	642.000000      	0.001060        	1.0000          	
9660.4000       	8637.0900       	81.4859         	605723.00       	423.000000      	0.000698        	1.0000          	
9660.4000       	8637.3900       	81.4726         	605687.00       	523.000000      	0.000863        	1.0000          	
9660.4010       	8637.6900       	81.4594         	605698.00       	632.000000      	0.001043        	1.0000          	
9660.3990       	8637.9900       	81.4461         	605556.00       	774.000000      	0.001278        	1.0000          	
9660.4010       	8638.2900       	81.4329         	605590.00       	921.000000      	0.001521        	1.0000          	
9660.4010       	8638.5900       	81.4197         	605583.00       	900.000000      	0.001486        	1.0000          	
9660.4020       	8638.8900       	81.4065         	605652.00       	738.000000      	0.001219        	1.0000          	
9660.4020       	8639.1900       	81.3934         	605529.00       	501.000000      	0.000827        	1.0000          	
9660.4000       	8639.4900       	81.3802         	605410.00       	270.000000      	0.000446        	1.0000          	
9660.4000       	8639.7900       	81.3671         	605451.00       	176.000000      	0.000291        	1.0000          	
9660.4010       	8640.0900       	81.3540         	605447.00       	108.000000      	0.000178        	1.0000          	
9660.4000       	8640.3900       	81.3410         	605465.00       	73.000000       	0.000121        	1.0000          	
9660.4000       	8640.6900       	81.3279         	605467.00       	64.000000       	0.000106        	1.0000          	
9660.4010       	8640.9900       	81.3149         	605434.00       	51.000000       	0.000084        	1.0000          	
9660.4000       	8641.2900       	81.3019         	605452.00       	53.000000       	0.000088        	1.0000          	
9660.4010       	8641.5900       	81.2889         	605474.00       	34.000000       	0.000056        	1.0000          	
9660.4010       	8641.8900       	81.2759         	605367.00       	25.000000       	0.000041        	1.0000          	
9660.3980       	8642.1900       	81.2629         	605303.00       	32.000000       	0.000053        	1.0000          	
9660.4000       	8642.4900       	81.2500         	605227.00       	25.000000       	0.000041        	1.0000          	
9660.4010       	8642.7900       	81.2371         	605348.00       	34.000000       	0.000056        	1.0000          	
9660.3990       	8643.0900       	81.2242         	605254.00       	26.000000       	0.000043        	1.0000          	
9660.4020       	8643.3900       	81.2113         	605163.00       	21.000000       	0.000035        	1.0000          	
9660.4010       	8643.6900       	81.1985         	605150.00       	19.000000       	0.000031        	1.0000          	
9660.3990       	8643.9900       	81.1856         	605096.00       	19.000000       	0.000031        	1.0000          	
9660.4000       	8644.2900       	81.1728         	605005.00       	20.000000       	0.000033        	1.0000          	
9660.4000       	8644.5900       	81.1600         	605117.00       	22.000000       	0.000036        	1.0000          	
9660.4000       	8644.8900       	81.1473         	605050.00       	18.000000       	0.000030        	1.0000          	
9660.3990       	8645.1900       	81.1345         	605024.00       	22.000000       	0.000036        	1.0000          	
9660.4000       	8645.4900       	81.1218         	604987.00       	23.000000       	0.000038        	1.0000          	
9660.4000       	8645.7900       	81.1091         	604910.00       	20.000000       	0.000033        	1.0000          	
9660.4020       	8646.0900       	81.0964         	604802.00       	18.000000       	0.000030        	1.0000          	
9660.4010       	8646.3900       	81.0837         	604787.00       	16.000000       	0.000026        	1.0000          	
9660.3980       	8646.6900       	81.0710         	604769.00       	15.000000       	0.000025        	1.0000          	
9660.3990       	8646.9900       	81.0584         	604693.00       	20.000000       	0.000033        	1.0000          	
9660.6990       	8632.0000       	81.7151         	604033.00       	640.000000      	0.001060        	1.0000          	
9660.7000       	8632.3000       	81.7014         	604095.00       	714.000000      	0.001182        	1.0000          	
9660.6990       	8632.5900       	81.6878         	603985.00       	774.000000      	0.001281        	1.0000          	
9660.6990       	8632.8900       	81.6742         	603954.00       	808.000000      	0.001338        	1.0000          	
9660.7000       	8633.1900       	81.6606         	603960.00       	1006.000000     	0.001666        	1.0000          	
9660.6990       	8633.4900       	81.6470         	603875.00       	1088.000000     	0.001802        	1.0000          	
9660.6990       	8633.7900       	81.6335         	603876.00       	1223.000000     	0.002025        	1.0000          	
9660.6990       	8634.0900       	81.6199         	603803.00       	1327.000000     	0.002198        	1.0000          	
9660.7010       	8634.3900       	81.6064         	603771.00       	1399.000000     	0.002317        	1.0000          	
9660.7010       	8634.6900       	81.5930         	603732.00       	1566.000000     	0.002594        	1.0000          	
9660.6990       	8634.9900       	81.5795         	603530.00       	1647.000000     	0.002729        	1.0000          	
9660.7010       	8635.2900       	81.5661         	603463.00       	1808.000000     	0.002996        	1.0000          	
9660.6990       	8635.5900       	81.5526         	603345.00       	1871.000000     	0.003101        	1.0000          	
9660.7000       	8635.8900       	81.5393         	603496.00       	1875.000000     	0.003107        	1.0000          	
9660.6990       	8636.1900       	81.5259         	603578.00       	1791.000000     	0.002967        	1.0000          	
9660.7000       	8636.4900       	81.5125         	603512.00       	1377.000000     	0.002282        	1.0000          	
9660.6990       	8636.7900       	81.4992         	603369.00       	1056.000000     	0.001750        	1.0000          	
9660.6990       	8637.0900       	81.4859         	603361.00       	762.000000      	0.001263        	1.0000          	
9660.6990       	8637.3900       	81.4726         	603341.00       	600.000000      	0.000994        	1.0000          	
9660.7000       	8637.6900       	81.4594         	603371.00       	658.000000      	0.001091        	1.0000          	
9660.7000       	8637.9900       	81.4461         	603337.00       	867.000000      	0.001437        	1.0000          	
9660.7000       	8638.2900       	81.4329         	603347.00       	1088.000000     	0.001803        	1.0000          	
9660.7000       	8638.5900       	81.4197         	603213.00       	1360.000000     	0.002255        	1.0000          	
9660.6990       	8638.8900       	81.4065         	603283.00       	1268.000000     	0.002102        	1.0000          	
9660.7000       	8639.1900       	81.3934         	603237.00       	922.000000      	0.001528        	1.0000          	
9660.7010       	8639.4900       	81.3802         	603140.00       	553.000000      	0.000917        	1.0000          	
9660.7010       	8639.7900       	81.3671         	603050.00       	315.000000      	0.000522        	1.0000          	
9660.6990       	8640.0900       	81.3540         	603074.00       	180.000000      	0.000298        	1.0000          	
9660.6980       	8640.3900       	81.3410         	603068.00       	135.000000      	0.000224        	1.0000          	
9660.7010       	8640.6900       	81.3279         	603046.00       	89.000000       	0.000148        	1.0000          	
9660.6990       	8640.9900       	81.3149         	603040.00       	77.000000       	0.000128        	1.0000          	
9660.7010       	8641.2900       	81.3019         	603072.00       	67.000000       	0.000111        	1.0000          	
9660.6980       	8641.5900       	81.2889         	602907.00       	49.000000       	0.000081        	1.0000          	
9660.7010       	8641.8900       	81.2759         	602953.00       	52.000000       	0.000086        	1.0000          	
9660.7000       	8642.1900       	81.2629         	602732.00       	35.000000       	0.000058        	1.0000          	
9660.7000       	8642.4900       	81.2500         	602871.00       	35.000000       	0.000058        	1.0000          	
9660.7000       	8642.7900       	81.2371         	602806.00       	36.000000       	0.000060        	1.0000          	
9660.7010       	8643.0900       	81.2242         	602883.00       	32.000000       	0.000053        	1.0000          	
9660.7000       	8643.3900       	81.2113         	602778.00       	34.000000       	0.000056        	1.0000          	
9660.7010       	8643.6900       	81.1985         	602716.00       	22.000000       	0.000037        	1.0000          	
9660.7010       	8643.9900       	81.1856         	602552.00       	32.000000       	0.000053        	1.0000          	
9660.6990       	8644.2900       	81.1728         	602584.00       	22.000000       	0.000037        	1.0000          	
9660.6990       	8644.5900       	81.1600         	602626.00       	19.000000       	0.000032        	1.0000          	
9660.7020       	8644.8900       	81.1473         	602379.00       	30.000000       	0.000050        	1.0000          	
9660.6990       	8645.1900       	81.1345         	602697.00       	19.000000       	0.000032        	1.0000          	
9660.7020       	8645.4900       	81.1218         	602571.00       	17.000000       	0.000028        	1.0000          	
9660.7000       	8645.7900       	81.1091         	602470.00       	27.000000       	0.000045        	1.0000          	
9660.7010       	8646.0900       	81.0964         	602343.00       	16.000000       	0.000027        	1.0000          	
9660.6990       	8646.3900       	81.0837         	602175.00       	16.000000       	0.000027        	1.0000          	
9660.7010       	8646.6900       	81.0710         	602208.00       	23.000000       	0.000038        	1.0000          	
9660.7000       	8646.9900       	81.0584         	602319.00       	12.000000       	0.000020        	1.0000          	
9660.9990       	8632.0000       	81.7151         	601936.00       	596.000000      	0.000990        	1.0000          	
9660.9990       	8632.3000       	81.7014         	601821.00       	678.000000      	0.001127        	1.0000          	
9660.9980       	8632.5900       	81.6878         	601777.00       	770.000000      	0.001280        	1.0000          	
9661.0010       	8632.8900       	81.6742         	601790.00       	841.000000      	0.001397        	1.0000          	
9661.0000       	8633.1900       	81.6606         	601785.00       	987.000000      	0.001640        	1.0000          	
9661.0020       	8633.4900       	81.6470         	601748.00       	1098.000000     	0.001825        	1.0000          	
9661.0020       	8633.7900       	81.6335         	601735.00       	1230.000000     	0.002044        	1.0000          	
9661.0010       	8634.0900       	81.6199         	601742.00       	1427.000000     	0.002371        	1.0000          	
9661.0000       	8634.3900       	81.6064         	601635.00       	1528.000000     	0.002540        	1.0000          	
9661.0000       	8634.6900       	81.5930         	601684.00       	1681.000000     	0.002794        	1.0000          	
9661.0010       	8634.9900       	81.5795         	601556.00       	1845.000000     	0.003067        	1.0000          	
9661.0000       	8635.2900       	81.5661         	601580.00       	1982.000000     	0.003295        	1.0000          	
9661.0000       	8635.5900       	81.5526         	601554.00       	2169.000000     	0.003606        	1.0000          	
9661.0010       	8635.8900       	81.5393         	601595.00       	2229.000000     	0.003705        	1.0000          	
9661.0000       	8636.1900       	81.5259         	601497.00       	2340.000000     	0.003890        	1.0000          	
9661.0020       	8636.4900       	81.5125         	601390.00       	2059.000000     	0.003424        	1.0000          	
9661.0020       	8636.7900       	81.4992         	601347.00       	1709.000000     	0.002842        	1.0000          	
9661.0000       	8637.0900       	81.4859         	601351.00       	1265.000000     	0.002104        	1.0000          	
9661.0010       	8637.3900       	81.4726         	601285.00       	911.000000      	0.001515        	1.0000          	
9661.0000       	8637.6900       	81.4594         	601342.00       	721.000000      	0.001199        	1.0000          	
9661.0000       	8637.9900       	81.4461         	601224.00       	766.000000      	0.001274        	1.0000          	
9660.9990       	8638.2900       	81.4329         	601110.00       	1075.000000     	0.001788        	1.0000          	
9661.0010       	8638.5900       	81.4197         	601169.00       	1418.000000     	0.002359        	1.0000          	
9661.0000       	8638.8900       	81.4065         	601229.00       	1638.000000     	0.002724        	1.0000          	
9661.0000       	8639.1900       	81.3934         	600919.00       	1494.000000     	0.002486        	1.0000          	
9661.0000       	8639.4900       	81.3802         	601043.00       	1080.000000     	0.001797        	1.0000          	
9661.0010       	8639.7900       	81.3671         	600951.00       	595.000000      	0.000990        	1.0000          	
9661.0000       	8640.0900       	81.3540         	601009.00       	322.000000      	0.000536        	1.0000          	
9661.0000       	8640.3900       	81.3410         	600977.00       	225.000000      	0.000374        	1.0000          	
9661.0010       	8640.6900       	81.3279         	600889.00       	132.000000      	0.000220        	1.0000          	
9660.9990       	8640.9900       	81.3149         	601020.00       	107.000000      	0.000178        	1.0000          	
9661.0020       	8641.2900       	81.3019         	600916.00       	77.000000       	0.000128        	1.0000          	
9660.9980       	8641.5900       	81.2889         	601005.00       	66.000000       	0.000110        	1.0000          	
9660.9990       	8641.8900       	81.2759         	600889.00       	51.000000       	0.000085        	1.0000          	
9661.0010       	8642.1900       	81.2629         	600865.00       	68.000000       	0.000113        	1.0000          	
9661.0000       	8642.4900       	81.2500         	600860.00       	42.000000       	0.000070        	1.0000          	
9661.0000       	8642.7900       	81.2371         	600824.00       	38.000000       	0.000063        	1.0000          	
9661.0010       	8643.0900       	81.2242         	600901.00       	46.000000       	0.000077        	1.0000          	
9661.0000       	8643.3900       	81.2113         	600797.00       	31.000000       	0.000052        	1.0000          	
9661.0000       	8643.6900       	81.1985         	600856.00       	36.000000       	0.000060        	1.0000          	
9661.0000       	8643.9900       	81.1856         	600801.00       	26.000000       	0.000043        	1.0000          	
9661.0000       	8644.2900       	81.1728         	600741.00       	40.000000       	0.000067        	1.0000          	
9661.0010       	8644.5900       	81.1600         	600691.00       	30.000000       	0.000050        	1.0000          	
9661.0010       	8644.8900       	81.1473         	600612.00       	35.000000       	0.000058        	1.0000          	
9660.9980       	8645.1900       	81.1345         	600614.00       	24.000000       	0.000040        	1.0000          	
9660.9980       	8645.4900       	81.1218         	600607.00       	18.000000       	0.000030        	1.0000          	
9660.9980       	8645.7900       	81.1091         	600584.00       	14.000000       	0.000023        	1.0000          	
9661.0010       	8646.0900       	81.0964         	600423.00       	16.000000       	0.000027        	1.0000          	
9660.9980       	8646.3900       	81.0837         	600410.00       	25.000000       	0.000042        	1.0000          	
9661.0000       	8646.6900       	81.0710         	600409.00       	17.000000       	0.000028        	1.0000          	
9661.0000       	8646.9900       	81.0584         	600266.00       	20.000000       	0.000033        	1.0000          	
9661.3020       	8632.0000       	81.7151         	599804.00       	655.000000      	0.001092        	1.0000          	
9661.3000       	8632.3000       	81.7014         	599681.00       	738.000000      	0.001231        	1.0000          	
9661.2990       	8632.5900       	81.6878         	599583.00       	779.000000      	0.001299        	1.0000          	
9661.3010       	8632.8900       	81.6742         	599537.00       	897.000000      	0.001496        	1.0000          	
9661.3000       	8633.1900       	81.6606         	599338.00       	968.000000      	0.001615        	1.0000          	
9661.3000       	8633.4900       	81.6470         	599334.00       	1054.000000     	0.001759        	1.0000          	
9661.3000       	8633.7900       	81.6335         	599238.00       	1139.000000     	0.001901        	1.0000          	
9661.3010       	8634.0900       	81.6199         	599466.00       	1384.000000     	0.002309        	1.0000          	
9661.3010       	8634.3900       	81.6064         	599407.00       	1523.000000     	0.002541        	1.0000          	
9661.3000       	8634.6900       	81.5930         	599213.00       	1675.000000     	0.002795        	1.0000          	
9661.3010       	8634.9900       	81.5795         	599210.00       	1891.000000     	0.003156        	1.0000          	
9661.2990       	8635.2900       	81.5661         	599305.00       	2134.000000     	0.003561        	1.0000          	
9661.2990       	8635.5900       	81.5526         	599149.00       	2205.000000     	0.003680        	1.0000          	
9661.3000       	8635.8900       	81.5393         	599149.00       	2507.000000     	0.004184        	1.0000          	
9661.3000       	8636.1900       	81.5259         	599056.00       	2641.000000     	0.004409        	1.0000          	
9661.2980       	8636.4900       	81.5125         	598871.00       	2660.000000     	0.004442        	1.0000          	
9661.3010       	8636.7900       	81.4992         	598940.00       	2540.000000     	0.004241        	1.0000          	
9661.3000       	8637.0900       	81.4859         	598985.00       	2055.000000     	0.003431        	1.0000          	
9661.3010       	8637.3900       	81.4726         	598749.00       	1589.000000     	0.002654        	1.0000          	
9661.2990       	8637.6900       	81.4594         	598836.00       	1059.000000     	0.001768        	1.0000          	
9661.3010       	8637.9900       	81.4461         	598764.00       	916.000000      	0.001530        	1.0000          	
9661.3020       	8638.2900       	81.4329         	598822.00       	977.000000      	0.001632        	1.0000          	
9661.2990       	8638.5900       	81.4197         	598775.00       	1357.000000     	0.002266        	1.0000          	
9661.2990       	8638.8900       	81.4065         	598649.00       	1726.000000     	0.002883        	1.0000          	
9661.3000       	8639.1900       	81.3934         	598620.00       	1841.000000     	0.003075        	1.0000          	
9661.2990       	8639.4900       	81.3802         	598633.00       	1500.000000     	0.002506        	1.0000          	
9661.3000       	8639.7900       	81.3671         	598604.00       	966.000000      	0.001614        	1.0000          	
9661.2990       	8640.0900       	81.3540         	598513.00       	598.000000      	0.000999        	1.0000          	
9661.3030       	8640.3900       	81.3410         	598592.00       	351.000000      	0.000586        	1.0000          	
9661.2990       	8640.6900       	81.3279         	598375.00       	220.000000      	0.000368        	1.0000          	
9661.2980       	8640.9900       	81.3149         	598469.00       	121.000000      	0.000202        	1.0000          	
9661.2990       	8641.2900       	81.3019         	598508.00       	131.000000      	0.000219        	1.0000          	
9661.3010       	8641.5900       	81.2889         	598525.00       	67.000000       	0.000112        	1.0000          	
9661.3000       	8641.8900       	81.2759         	598448.00       	64.000000       	0.000107        	1.0000          	
9661.2990       	8642.1900       	81.2629         	598452.00       	73.000000       	0.000122        	1.0000          	
9661.2990       	8642.4900       	81.2500         	606799.00       	68.000000       	0.000112        	1.0000          	
9661.3010       	8642.7900       	81.2371         	607265.00       	50.000000       	0.000082        	1.0000          	
9661.3010       	8643.0900       	81.2242         	607651.00       	46.000000       	0.000076        	1.0000          	
9661.3020       	8643.3900       	81.2113         	607792.00       	43.000000       	0.000071        	1.0000          	
9661.3000       	8643.6900       	81.1985         	607921.00       	49.000000       	0.000081        	1.0000          	
9661.3010       	8643.9900       	81.1856         	607995.00       	49.000000       	0.000081        	1.0000          	
9661.3020       	8644.2900       	81.1728         	608033.00       	41.000000       	0.000067        	1.0000          	
9661.2990       	8644.5900       	81.1600         	608022.00       	32.000000       	0.000053        	1.0000          	
9661.2980       	8644.8900       	81.1473         	608068.00       	29.000000       	0.000048        	1.0000          	
9661.3000       	8645.1900       	81.1345         	608145.00       	22.000000       	0.000036        	1.0000          	
9661.2990       	8645.4900       	81.1218         	608162.00       	26.000000       	0.000043        	1.0000          	
9661.3010       	8645.7900       	81.1091         	608175.00       	23.000000       	0.000038        	1.0000          	
9661.3000       	8646.0900       	81.0964         	608166.00       	29.000000       	0.000048        	1.0000          	
9661.3000       	8646.3900       	81.0837         	608176.00       	30.000000       	0.000049        	1.0000          	
9661.3010       	8646.6900       	81.0710         	608188.00       	21.000000       	0.000035        	1.0000          	
9661.3010       	8646.9900       	81.0584         	608227.00       	27.000000       	0.000044        	1.0000          	
9661.6010       	8632.0000       	81.7151         	608083.00       	658.000000      	0.001082        	1.0000          	
9661.6000       	8632.3000       	81.7014         	608081.00       	738.000000      	0.001214        	1.0000          	
9661.6000       	8632.5900       	81.6878         	608070.00       	824.000000      	0.001355        	1.0000          	
9661.6010       	8632.8900       	81.6742         	608133.00       	850.000000      	0.001398        	1.0000          	
9661.6000       	8633.1900       	81.6606         	608096.00       	1007.000000     	0.001656        	1.0000          	
9661.6000       	8633.4900       	81.6470         	607966.00       	1078.000000     	0.001773        	1.0000          	
9661.6010       	8633.7900       	81.6335         	607869.00       	1242.000000     	0.002043        	1.0000          	
9661.6010       	8634.0900       	81.6199         	607816.00       	1387.000000     	0.002282        	1.0000          	
9661.5990       	8634.3900       	81.6064         	607710.00       	1599.000000     	0.002631        	1.0000          	
9661.6010       	8634.6900       	81.5930         	607767.00       	1790.000000     	0.002945        	1.0000          	
9661.6010       	8634.9900       	81.5795         	607823.00       	1945.000000     	0.003200        	1.0000          	
9661.6000       	8635.2900       	81.5661         	607862.00       	2238.000000     	0.003682        	1.0000          	
9661.5990       	8635.5900       	81.5526         	607737.00       	2442.000000     	0.004018        	1.0000          	
9661.5990       	8635.8900       	81.5393         	607647.00       	2758.000000     	0.004539        	1.0000          	
9661.6000       	8636.1900       	81.5259         	607508.00       	3118.000000     	0.005132        	1.0000          	
9661.6020       	8636.4900       	81.5125         	607427.00       	3409.000000     	0.005612        	1.0000          	
9661.6000       	8636.7900       	81.4992         	607527.00       	3454.000000     	0.005685        	1.0000          	
9661.6000       	8637.0900       	81.4859         	607483.00       	3260.000000     	0.005366        	1.0000          	
9661.6000       	8637.3900       	81.4726         	607475.00       	2699.000000     	0.004443        	1.0000          	
9661.5980       	8637.6900       	81.4594         	607359.00       	1945.000000     	0.003202        	1.0000          	
9661.5980       	8637.9900       	81.4461         	607351.00       	1546.000000     	0.002545        	1.0000          	
9661.6000       	8638.2900       	81.4329         	607282.00       	1185.000000     	0.001951        	1.0000          	
9661.6000       	8638.5900       	81.4197         	607219.00       	1234.000000     	0.002032        	1.0000          	
9661.5990       	8638.8900       	81.4065         	607242.00       	1538.000000     	0.002533        	1.0000          	
9661.5990       	8639.1900       	81.3934         	607230.00       	1835.000000     	0.003022        	1.0000          	
9661.6000       	8639.4900       	81.3802         	607224.00       	1771.000000     	0.002917        	1.0000          	
9661.5990       	8639.7900       	81.3671         	607062.00       	1432.000000     	0.002359        	1.0000          	
9661.5990       	8640.0900       	81.3540         	607197.00       	1000.000000     	0.001647        	1.0000          	
9661.5990       	8640.3900       	81.3410         	607073.00       	540.000000      	0.000890        	1.0000          	
9661.6010       	8640.6900       	81.3279         	607103.00       	306.000000      	0.000504        	1.0000          	
9661.6000       	8640.9900       	81.3149         	607003.00       	217.000000      	0.000357        	1.0000          	
9661.6000       	8641.2900       	81.3019         	607130.00       	164.000000      	0.000270        	1.0000          	
9661.6000       	8641.5900       	81.2889         	607008.00       	128.000000      	0.000211        	1.0000          	
9661.6010       	8641.8900       	81.2759         	607076.00       	89.000000       	0.000147        	1.0000          	
9661.6000       	8642.1900       	81.2629         	607058.00       	64.000000       	0.000105        	1.0000          	
9661.5980       	8642.4900       	81.2500         	607020.00       	80.000000       	0.000132        	1.0000          	
9661.5990       	8642.7900       	81.2371         	607022.00       	66.000000       	0.000109        	1.0000          	
9661.6010       	8643.0900       	81.2242         	607072.00       	59.000000       	0.000097        	1.0000          	
9661.6010       	8643.3900       	81.2113         	606967.00       	58.000000       	0.000096        	1.0000          	
9661.6010       	8643.6900       	81.1985         	606953.00       	54.000000       	0.000089        	1.0000          	
9661.5990       	8643.9900       	81.1856         	606954.00       	51.000000       	0.000084        	1.0000          	
9661.6020       	8644.2900       	81.1728         	606876.00       	42.000000       	0.000069        	1.0000          	
9661.5980       	8644.5900       	81.1600         	606883.00       	44.000000       	0.000073        	1.0000          	
9661.6000       	8644.8900       	81.1473         	606863.00       	22.000000       	0.000036        	1.0000          	
9661.6000       	8645.1900       	81.1345         	606816.00       	36.000000       	0.000059        	1.0000          	
9661.5980       	8645.4900       	81.1218         	606749.00       	23.000000       	0.000038        	1.0000          	
9661.5990       	8645.7900       	81.1091         	606719.00       	32.000000       	0.000053        	1.0000          	
9661.6010       	8646.0900       	81.0964         	606700.00       	31.000000       	0.000051        	1.0000          	
9661.6010       	8646.3900       	81.0837         	606620.00       	21.000000       	0.000035        	1.0000          	
9661.6010       	8646.6900       	81.0710         	606515.00       	23.000000       	0.000038        	1.0000          	
9661.6000       	8646.9900       	81.0584         	606451.00       	32.000000       	0.000053        	1.0000          	
9661.9020       	8632.0000       	81.7151         	606041.00       	710.000000      	0.001172        	1.0000          	
9661.9000       	8632.3000       	81.7014         	606001.00       	749.000000      	0.001236        	1.0000          	
9661.9010       	8632.5900       	81.6878         	605963.00       	836.000000      	0.001380        	1.0000          	
9661.9000       	8632.8900       	81.6742         	605973.00       	872.000000      	0.001439        	1.0000          	
9661.9000       	8633.1900       	81.6606         	606000.00       	931.000000      	0.001536        	1.0000          	
9661.8990       	8633.4900       	81.6470         	605884.00       	1117.000000     	0.001844        	1.0000          	
9661.9010       	8633.7900       	81.6335         	605911.00       	1165.000000     	0.001923        	1.0000          	
9661.9010       	8634.0900       	81.6199         	605781.00       	1381.000000     	0.002280        	1.0000          	
9661.9020       	8634.3900       	81.6064         	605966.00       	1561.000000     	0.002576        	1.0000          	
9661.9010       	8634.6900       	81.5930         	606008.00       	1776.000000     	0.002931        	1.0000          	
9661.9000       	8634.9900       	81.5795         	605800.00       	2075.000000     	0.003425        	1.0000          	
9661.8990       	8635.2900       	81.5661         	605864.00       	2350.000000     	0.003879        	1.0000          	
9661.8990       	8635.5900       	81.5526         	605836.00       	2699.000000     	0.004455        	1.0000          	
9661.9010       	8635.8900       	81.5393         	605855.00       	2939.000000     	0.004851        	1.0000          	
9661.9000       	8636.1900       	81.5259         	605948.00       	3317.000000     	0.005474        	1.0000          	
9661.9000       	8636.4900       	81.5125         	605805.00       	3826.000000     	0.006316        	1.0000          	
9661.9000       	8636.7900       	81.4992         	605846.00       	4131.000000     	0.006819        	1.0000          	
9661.9000       	8637.0900       	81.4859         	605780.00       	4291.000000     	0.007083        	1.0000          	
9661.8980       	8637.3900       	81.4726         	605698.00       	4237.000000     	0.006995        	1.0000          	
9661.9000       	8637.6900       	81.4594         	605569.00       	3573.000000     	0.005900        	1.0000          	
9661.9000       	8637.9900       	81.4461         	605500.00       	2765.000000     	0.004566        	1.0000          	
9661.9010       	8638.2900       	81.4329         	605459.00       	1821.000000     	0.003008        	1.0000          	
9661.9000       	8638.5900       	81.4197         	605532.00       	1377.000000     	0.002274        	1.0000          	
9661.9000       	8638.8900       	81.4065         	605489.00       	1328.000000     	0.002193        	1.0000          	
9661.9000       	8639.1900       	81.3934         	605521.00       	1469.000000     	0.002426        	1.0000          	
9661.9000       	8639.4900       	81.3802         	605452.00       	1619.000000     	0.002674        	1.0000          	
9661.8980       	8639.7900       	81.3671         	605398.00       	1607.000000     	0.002654        	1.0000          	
9661.9000       	8640.0900       	81.3540         	605387.00       	1181.000000     	0.001951        	1.0000          	
9661.9000       	8640.3900       	81.3410         	605222.00       	743.000000      	0.001228        	1.0000          	
9661.9000       	8640.6900       	81.3279         	605237.00       	468.000000      	0.000773        	1.0000          	
9661.9000       	8640.9900       	81.3149         	605204.00       	272.000000      	0.000449        	1.0000          	
9661.9000       	8641.2900       	81.3019         	605249.00       	196.000000      	0.000324        	1.0000          	
9661.8990       	8641.5900       	81.2889         	605195.00       	139.000000      	0.000230        	1.0000          	
9661.9000       	8641.8900       	81.2759         	605026.00       	112.000000      	0.000185        	1.0000          	
9661.9000       	8642.1900       	81.2629         	605071.00       	120.000000      	0.000198        	1.0000          	
9661.9000       	8642.4900       	81.2500         	605046.00       	63.000000       	0.000104        	1.0000          	
9661.8990       	8642.7900       	81.2371         	604997.00       	79.000000       	0.000131        	1.0000          	
9661.9010       	8643.0900       	81.2242         	604974.00       	63.000000       	0.000104        	1.0000          	
9661.9000       	8643.3900       	81.2113         	604942.00       	60.000000       	0.000099        	1.0000          	
9661.9010       	8643.6900       	81.1985         	604910.00       	56.000000       	0.000093        	1.0000          	
9661.9010       	8643.9900       	81.1856         	604908.00       	47.000000       	0.000078        	1.0000          	
9661.9020       	8644.2900       	81.1728         	604759.00       	49.000000       	0.000081        	1.0000          	
9661.8990       	8644.5900       	81.1600         	604849.00       	36.000000       	0.000060        	1.0000          	
9661.9000       	8644.8900       	81.1473         	604784.00       	43.000000       	0.000071        	1.0000          	
9661.8990       	8645.1900       	81.1345         	604569.00       	41.000000       	0.000068        	1.0000          	
9661.8990       	8645.4900       	81.1218         	604515.00       	33.000000       	0.000055        	1.0000          	
9661.9000       	8645.7900       	81.1091         	604443.00       	36.000000       	0.000060        	1.0000          	
9661.9010       	8646.0900       	81.0964         	604434.00       	28.000000       	0.000046        	1.0000          	
9661.9010       	8646.3900       	81.0837         	604294.00       	34.000000       	0.000056        	1.0000          	
9661.9000       	8646.6900       	81.0710         	604348.00       	28.000000       	0.000046        	1.0000          	
9661.9010       	8646.9900       	81.0584         	604381.00       	24.000000       	0.000040        	1.0000          	
9662.2000       	8632.0000       	81.7151         	603789.00       	685.000000      	0.001135        	1.0000          	
9662.2000       	8632.3000       	81.7014         	603926.00       	789.000000      	0.001306        	1.0000          	
9662.1980       	8632.5900       	81.6878         	603835.00       	815.000000      	0.001350        	1.0000          	
9662.1990       	8632.8900       	81.6742         	603840.00       	905.000000      	0.001499        	1.0000          	
9662.2000       	8633.1900       	81.6606         	603755.00       	921.000000      	0.001525        	1.0000          	
9662.2000       	8633.4900       	81.6470         	603612.00       	1137.000000     	0.001884        	1.0000          	
9662.2010       	8633.7900       	81.6335         	603465.00       	1160.000000     	0.001922        	1.0000          	
9662.1990       	8634.0900       	81.6199         	603407.00       	1338.000000     	0.002217        	1.0000          	
9662.2000       	8634.3900       	81.6064         	603454.00       	1571.000000     	0.002603        	1.0000          	
9662.2000       	8634.6900       	81.5930         	603427.00       	1807.000000     	0.002995        	1.0000          	
9662.1990       	8634.9900       	81.5795         	603387.00       	2093.000000     	0.003469        	1.0000          	
9662.2000       	8635.2900       	81.5661         	603395.00       	2353.000000     	0.003900        	1.0000          	
9662.2000       	8635.5900       	81.5526         	603268.00       	2761.000000     	0.004577        	1.0000          	
9662.2010       	8635.8900       	81.5393         	603124.00       	3244.000000     	0.005379        	1.0000          	
9662.2010       	8636.1900       	81.5259         	602973.00       	3641.000000     	0.006038        	1.0000          	
9662.2010       	8636.4900       	81.5125         	603098.00       	4069.000000     	0.006747        	1.0000          	
9662.2020       	8636.7900       	81.4992         	602873.00       	4689.000000     	0.007778        	1.0000          	
9662.2000       	8637.0900       	81.4859         	603013.00       	5289.000000     	0.008771        	1.0000          	
9662.2000       	8637.3900       	81.4726         	602817.00       	5667.000000     	0.009401        	1.0000          	
9662.2010       	8637.6900       	81.4594         	602885.00       	5359.000000     	0.008889        	1.0000          	
9662.2000       	8637.9900       	81.4461         	602725.00       	4680.000000     	0.007765        	1.0000          	
9662.1980       	8638.2900       	81.4329         	602565.00       	3535.000000     	0.005867        	1.0000          	
9662.1990       	8638.5900       	81.4197         	602578.00       	2413.000000     	0.004004        	1.0000          	
9662.2000       	8638.8900       	81.4065         	602590.00       	1625.000000     	0.002697        	1.0000          	
9662.2010       	8639.1900       	81.3934         	602417.00       	1328.000000     	0.002204        	1.0000          	
9662.2000       	8639.4900       	81.3802         	602508.00       	1332.000000     	0.002211        	1.0000          	
9662.2020       	8639.7900       	81.3671         	602450.00       	1435.000000     	0.002382        	1.0000          	
9662.2000       	8640.0900       	81.3540         	602465.00       	1350.000000     	0.002241        	1.0000          	
9662.1990       	8640.3900       	81.3410         	602231.00       	969.000000      	0.001609        	1.0000          	
9662.1990       	8640.6900       	81.3279         	602354.00       	587.000000      	0.000975        	1.0000          	
9662.1980       	8640.9900       	81.3149         	602232.00       	404.000000      	0.000671        	1.0000          	
9662.2000       	8641.2900       	81.3019         	602175.00       	247.000000      	0.000410        	1.0000          	
9662.2000       	8641.5900       	81.2889         	602364.00       	191.000000      	0.000317        	1.0000          	
9662.2010       	8641.8900       	81.2759         	602336.00       	131.000000      	0.000217        	1.0000          	
9662.2010       	8642.1900       	81.2629         	602146.00       	121.000000      	0.000201        	1.0000          	
9662.2010       	8642.4900       	81.2500         	602095.00       	120.000000      	0.000199        	1.0000          	
9662.2000       	8642.7900       	81.2371         	601925.00       	84.000000       	0.000140        	1.0000          	
9662.1990       	8643.0900       	81.2242         	602007.00       	88.000000       	0.000146        	1.0000          	
9662.2010       	8643.3900       	81.2113         	601868.00       	82.000000       	0.000136        	1.0000          	
9662.1980       	8643.6900       	81.1985         	601899.00       	74.000000       	0.000123        	1.0000          	
9662.2000       	8643.9900       	81.1856         	601944.00       	60.000000       	0.000100        	1.0000          	
9662.2010       	8644.2900       	81.1728         	601901.00       	55.000000       	0.000091        	1.0000          	
9662.2000       	8644.5900       	81.1600         	601843.00       	48.000000       	0.000080        	1.0000          	
9662.2010       	8644.8900       	81.1473         	601864.00       	46.000000       	0.000076        	1.0000          	
9662.2000       	8645.1900       	81.1345         	601785.00       	44.000000       	0.000073        	1.0000          	
9662.1990       	8645.4900       	81.1218         	601582.00       	38.000000       	0.000063        	1.0000          	
9662.1990       	8645.7900       	81.1091         	601622.00       	45.000000       	0.000075        	1.0000          	
9662.2000       	8646.0900       	81.0964         	601548.00       	27.000000       	0.000045        	1.0000          	
9662.2010       	8646.3900       	81.0837         	601578.00       	38.000000       	0.000063        	1.0000          	
9662.2000       	8646.6900       	81.0710         	601528.00       	28.000000       	0.000047        	1.0000          	
9662.1990       	8646.9900       	81.0584         	601555.00       	33.000000       	0.000055        	1.0000          	
9662.5010       	8632.0000       	81.7151         	601914.00       	695.000000      	0.001155        	1.0000          	
9662.5010       	8632.3000       	81.7014         	601857.00       	795.000000      	0.001321        	1.0000          	
9662.5010       	8632.5900       	81.6878         	601906.00       	839.000000      	0.001394        	1.0000          	
9662.5000       	8632.8900       	81.6742         	601847.00       	890.000000      	0.001479        	1.0000          	
9662.5010       	8633.1900       	81.6606         	601814.00       	1054.000000     	0.001751        	1.0000          	
9662.5010       	8633.4900       	81.6470         	601928.00       	1064.000000     	0.001768        	1.0000          	
9662.4990       	8633.7900       	81.6335         	601834.00       	1188.000000     	0.001974        	1.0000          	
9662.5010       	8634.0900       	81.6199         	601866.00       	1324.000000     	0.002200        	1.0000          	
9662.5010       	8634.3900       	81.6064         	601816.00       	1527.000000     	0.002537        	1.0000          	
9662.5000       	8634.6900       	81.5930         	601814.00       	1751.000000     	0.002910        	1.0000          	
9662.5000       	8634.9900       	81.5795         	601770.00       	2094.000000     	0.003480        	1.0000          	
9662.4990       	8635.2900       	81.5661         	601742.00       	2459.000000     	0.004086        	1.0000          	
9662.4990       	8635.5900       	81.5526         	601699.00       	2822.000000     	0.004690        	1.0000          	
9662.5010       	8635.8900       	81.5393         	601660.00       	3301.000000     	0.005486        	1.0000          	
9662.5000       	8636.1900       	81.5259         	601696.00       	3831.000000     	0.006367        	1.0000          	
9662.5010       	8636.4900       	81.5125         	601684.00       	4397.000000     	0.007308        	1.0000          	
9662.4990       	8636.7900       	81.4992         	601662.00       	4968.000000     	0.008257        	1.0000          	
9662.4990       	8637.0900       	81.4859         	601554.00       	5891.000000     	0.009793        	1.0000          	
9662.5010       	8637.3900       	81.4726         	601584.00       	6829.000000     	0.011352        	1.0000          	
9662.5000       	8637.6900       	81.4594         	601481.00       	7622.000000     	0.012672        	1.0000          	
9662.5020       	8637.9900       	81.4461         	601519.00       	7367.000000     	0.012247        	1.0000          	
9662.4990       	8638.2900       	81.4329         	601533.00       	6442.000000     	0.010709        	1.0000          	
9662.5000       	8638.5900       	81.4197         	601394.00       	4617.000000     	0.007677        	1.0000          	
9662.4980       	8638.8900       	81.4065         	601365.00       	3263.000000     	0.005426        	1.0000          	
9662.4990       	8639.1900       	81.3934         	601307.00       	2016.000000     	0.003353        	1.0000          	
9662.5010       	8639.4900       	81.3802         	601275.00       	1417.000000     	0.002357        	1.0000          	
9662.4990       	8639.7900       	81.3671         	601162.00       	1276.000000     	0.002123        	1.0000          	
9662.5010       	8640.0900       	81.3540         	601123.00       	1213.000000     	0.002018        	1.0000          	
9662.5000       	8640.3900       	81.3410         	601039.00       	938.000000      	0.001561        	1.0000          	
9662.5000       	8640.6900       	81.3279         	601050.00       	790.000000      	0.001314        	1.0000          	
9662.4990       	8640.9900       	81.3149         	600919.00       	552.000000      	0.000919        	1.0000          	
9662.4980       	8641.2900       	81.3019         	600895.00       	378.000000      	0.000629        	1.0000          	
9662.5010       	8641.5900       	81.2889         	600631.00       	240.000000      	0.000400        	1.0000          	
9662.4990       	8641.8900       	81.2759         	600628.00       	188.000000      	0.000313        	1.0000          	
9662.4980       	8642.1900       	81.2629         	600563.00       	161.000000      	0.000268        	1.0000          	
9662.5010       	8642.4900       	81.2500         	600494.00       	130.000000      	0.000216        	1.0000          	
9662.5000       	8642.7900       	81.2371         	600418.00       	96.000000       	0.000160        	1.0000          	
9662.4990       	8643.0900       	81.2242         	600380.00       	103.000000      	0.000172        	1.0000          	
9662.5000       	8643.3900       	81.2113         	600305.00       	73.000000       	0.000122        	1.0000          	
9662.4990       	8643.6900       	81.1985         	600334.00       	78.000000       	0.000130        	1.0000          	
9662.5000       	8643.9900       	81.1856         	600366.00       	69.000000       	0.000115        	1.0000          	
9662.5000       	8644.2900       	81.1728         	600268.00       	62.000000       	0.000103        	1.0000          	
9662.5010       	8644.5900       	81.1600         	600223.00       	60.000000       	0.000100        	1.0000          	
9662.5000       	8644.8900       	81.1473         	600153.00       	66.000000       	0.000110        	1.0000          	
9662.5010       	8645.1900       	81.1345         	600046.00       	50.000000       	0.000083        	1.0000          	
9662.4990       	8645.4900       	81.1218         	599968.00       	55.000000       	0.000092        	1.0000          	
9662.4990       	8645.7900       	81.1091         	600040.00       	43.000000       	0.000072        	1.0000          	
9662.5010       	8646.0900       	81.0964         	600002.00       	52.000000       	0.000087        	1.0000          	
9662.4990       	8646.3900       	81.0837         	599853.00       	46.000000       	0.000077        	1.0000          	
9662.5000       	8646.6900       	81.0710         	599805.00       	40.000000       	0.000067        	1.0000          	
9662.5020       	8646.9900       	81.0584         	599809.00       	38.000000       	0.000063        	1.0000          	
9662.8000       	8632.0000       	81.7151         	599149.00       	698.000000      	0.001165        	1.0000          	
9662.8000       	8632.3000       	81.7014         	607654.00       	797.000000      	0.001312        	1.0000          	
9662.8010       	8632.5900       	81.6878         	608253.00       	921.000000      	0.001514        	1.0000          	
9662.8000       	8632.8900       	81.6742         	608580.00       	943.000000      	0.001550        	1.0000          	
9662.8010       	8633.1900       	81.6606         	608759.00       	1117.000000     	0.001835        	1.0000          	
9662.8000       	8633.4900       	81.6470         	608955.00       	1152.000000     	0.001892        	1.0000          	
9662.8000       	8633.7900       	81.6335         	609003.00       	1293.000000     	0.002123        	1.0000          	
9662.8010       	8634.0900       	81.6199         	609029.00       	1447.000000     	0.002376        	1.0000          	
9662.8000       	8634.3900       	81.6064         	609083.00       	1575.000000     	0.002586        	1.0000          	
9662.8010       	8634.6900       	81.5930         	609137.00       	1788.000000     	0.002935        	1.0000          	
9662.8000       	8634.9900       	81.5795         	609174.00       	2173.000000     	0.003567        	1.0000          	
9662.7990       	8635.2900       	81.5661         	609185.00       	2533.000000     	0.004158        	1.0000          	
9662.8000       	8635.5900       	81.5526         	609111.00       	3030.000000     	0.004974        	1.0000          	
9662.7980       	8635.8900       	81.5393         	609141.00       	3468.000000     	0.005693        	1.0000          	
9662.7990       	8636.1900       	81.5259         	609129.00       	4233.000000     	0.006949        	1.0000          	
9662.7980       	8636.4900       	81.5125         	609101.00       	4822.000000     	0.007917        	1.0000          	
9662.7990       	8636.7900       	81.4992         	609106.00       	5750.000000     	0.009440        	1.0000          	
9662.7990       	8637.0900       	81.4859         	609053.00       	6764.000000     	0.011106        	1.0000          	
9662.7990       	8637.3900       	81.4726         	609055.00       	7999.000000     	0.013133        	1.0000          	
9662.8010       	8637.6900       	81.4594         	609059.00       	9333.000000     	0.015324        	1.0000          	
9662.8000       	8637.9900       	81.4461         	609063.00       	10152.000000    	0.016668        	1.0000          	
9662.8000       	8638.2900       	81.4329         	609000.00       	10260.000000    	0.016847        	1.0000          	
9662.7990       	8638.5900       	81.4197         	609017.00       	8797.000000     	0.014445        	1.0000          	
9662.8000       	8638.8900       	81.4065         	608983.00       	6472.000000     	0.010628        	1.0000          	
9662.8000       	8639.1900       	81.3934         	608964.00       	4176.000000     	0.006858        	1.0000          	
9662.7990       	8639.4900       	81.3802         	608894.00       	2571.000000     	0.004222        	1.0000          	
9662.7990       	8639.7900       	81.3671         	608867.00       	1703.000000     	0.002797        	1.0000          	
9662.7990       	8640.0900       	81.3540         	608837.00       	1306.000000     	0.002145        	1.0000          	
9662.7980       	8640.3900       	81.3410         	608821.00       	1172.000000     	0.001925        	1.0000          	
9662.7980       	8640.6900       	81.3279         	608785.00       	978.000000      	0.001606        	1.0000          	
9662.8000       	8640.9900       	81.3149         	608755.00       	743.000000      	0.001221        	1.0000          	
9662.8010       	8641.2900       	81.3019         	608711.00       	531.000000      	0.000872        	1.0000          	
9662.8000       	8641.5900       	81.2889         	608670.00       	341.000000      	0.000560        	1.0000          	
9662.7990       	8641.8900       	81.2759         	608646.00       	250.000000      	0.000411        	1.0000          	
9662.7990       	8642.1900       	81.2629         	608606.00       	189.000000      	0.000311        	1.0000          	
9662.8010       	8642.4900       	81.2500         	608548.00       	192.000000      	0.000316        	1.0000          	
9662.7990       	8642.7900       	81.2371         	608486.00       	152.000000      	0.000250        	1.0000          	
9662.8000       	8643.0900       	81.2242         	608537.00       	155.000000      	0.000255        	1.0000          	
9662.7990       	8643.3900       	81.2113         	608480.00       	130.000000      	0.000214        	1.0000          	
9662.8010       	8643.6900       	81.1985         	608435.00       	120.000000      	0.000197        	1.0000          	
9662.8010       	8643.9900       	81.1856         	608416.00       	97.000000       	0.000159        	1.0000          	
9662.8000       	8644.2900       	81.1728         	608350.00       	89.000000       	0.000146        	1.0000          	
9662.7990       	8644.5900       	81.1600         	608348.00       	67.000000       	0.000110        	1.0000          	
9662.8000       	8644.8900       	81.1473         	608310.00       	87.000000       	0.000143        	1.0000          	
9662.8010       	8645.1900       	81.1345         	608260.00       	81.000000       	0.000133        	1.0000          	
9662.8000       	8645.4900       	81.1218         	608264.00       	80.000000       	0.000132        	1.0000          	
9662.8010       	8645.7900       	81.1091         	608238.00       	61.000000       	0.000100        	1.0000          	
9662.7990       	8646.0900       	81.0964         	608160.00       	51.000000       	0.000084        	1.0000          	
9662.8000       	8646.3900       	81.0837         	608145.00       	59.000000       	0.000097        	1.0000          	
9662.8000       	8646.6900       	81.0710         	608087.00       	48.000000       	0.000079        	1.0000          	
9662.7990       	8646.9900       	81.0584         	608054.00       	55.000000       	0.000090        	1.0000          	
# Instrument: I20-XAS Date: Wed, 8 Oct 2025 17:42:01 BST
# Final ring current: 297.13961
